File: MATLAB/Examples/example_spectra/palygorskite.msa
#FORMAT      : EMSA/MAS SPECTRAL DATA FILE
#VERSION     : 1.0
#TITLE       : MineralStandards | Plg | Area 2 | Selected Area 1
#DATE        : 09-Jul-2024
#TIME        : 12:35
#OWNER       : EDAX APEX /ApexData
#NPOINTS     : 4096
#NCOLUMNS    : 1
#XUNITS      : Energy (EV)
#YUNITS      : Intensity
#DATATYPE    : XY
#XPERCHAN    : 10.000
#OFFSET      : 0.0
#CHOFFSET    : 0.0
#SIGNALTYPE  : EDS
#XLABEL      : X-RAY Energy
#YLABEL      : X-RAY Intensity
#BEAMKV   -kV: 15.0
#LIVETIME  -s: 10.0
#REALTIME  -s: 0.0
#ELEVANGLE-dg: 35.0
#AZIMANGLE-dg: 0.0
#TBEWIND  -cm: 0.000000
#TDEADLYR -cm: 0.030
#TACTYLR  -cm: 0.1
#COMMENT     : Converted by EDAX.APEX.V2.0 February 2020
##FILENAME       : \\naotvcsocc.coeit.osu.edu\CEMAS_Instrument\weber.1158\PhD\20240709\MineralStandards\Plg\Area 2\Selected Area 1_1.spc
##AmpTime (usec) : 0.96
##FPGA Version   : 0
##RESO (MnKa)    : 126.2
##EDAX Detector  : Octane Elect Super
##Analyzer Type  : DPP4
##Tilt Angle     : 0.0
##TakeOff Angle  : 36.9
##Elements       : 8,12,13,14
#SPECTRUM    : Spectral Data Starts Here
0.00,        0.0
140.00,        821.0
280.00,        47354.0
420.00,        2320.0
560.00,        19237.0
700.00,        1646.0
840.00,        1740.0
980.00,        1877.0
1120.00,        1812.0
1260.00,        16760.0
1400.00,        2144.0
1540.00,        6515.0
1680.00,        15136.0
1820.00,        8997.0
1960.00,        2031.0
2100.00,        1081.0
2240.00,        2440.0
2380.00,        877.0
2520.00,        891.0
2660.00,        862.0
2800.00,        776.0
2940.00,        878.0
3080.00,        734.0
3220.00,        974.0
3360.00,        714.0
3500.00,        1172.0
3640.00,        642.0
3780.00,        530.0
3920.00,        505.0
4060.00,        493.0
4200.00,        453.0
4340.00,        410.0
4480.00,        413.0
4620.00,        395.0
4760.00,        365.0
4900.00,        363.0
5040.00,        357.0
5180.00,        342.0
5320.00,        339.0
5460.00,        309.0
5600.00,        274.0
5740.00,        282.0
5880.00,        275.0
6020.00,        253.0
6160.00,        239.0
6300.00,        245.0
6440.00,        289.0
6580.00,        188.0
6720.00,        209.0
6860.00,        208.0
7000.00,        211.0
7140.00,        183.0
7280.00,        192.0
7420.00,        168.0
7560.00,        150.0
7700.00,        158.0
7840.00,        186.0
7980.00,        155.0
8120.00,        165.0
8260.00,        115.0
8400.00,        130.0
8540.00,        109.0
8680.00,        108.0
8820.00,        108.0
8960.00,        109.0
9100.00,        116.0
9240.00,        109.0
9380.00,        127.0
9520.00,        99.0
9660.00,        91.0
9800.00,        102.0
9940.00,        78.0
10080.00,        82.0
10220.00,        78.0
10360.00,        75.0
10500.00,        77.0
10640.00,        67.0
10780.00,        71.0
10920.00,        68.0
11060.00,        38.0
11200.00,        61.0
11340.00,        57.0
11480.00,        52.0
11620.00,        47.0
11760.00,        44.0
11900.00,        36.0
12040.00,        29.0
12180.00,        33.0
12320.00,        35.0
12460.00,        36.0
12600.00,        26.0
12740.00,        23.0
12880.00,        26.0
13020.00,        16.0
13160.00,        22.0
13300.00,        21.0
13440.00,        15.0
13580.00,        16.0
13720.00,        10.0
13860.00,        11.0
14000.00,        7.0
14140.00,        9.0
14280.00,        12.0
14420.00,        5.0
14560.00,        3.0
14700.00,        3.0
14840.00,        2.0
14980.00,        1.0
15120.00,        1.0
15260.00,        2.0
15400.00,        1.0
15540.00,        1.0
15680.00,        0.0
15820.00,        1.0
15960.00,        1.0
16100.00,        2.0
16240.00,        0.0
16380.00,        0.0
16520.00,        1.0
16660.00,        1.0
16800.00,        0.0
16940.00,        0.0
17080.00,        0.0
17220.00,        1.0
17360.00,        0.0
17500.00,        0.0
17640.00,        0.0
17780.00,        0.0
17920.00,        0.0
18060.00,        0.0
18200.00,        0.0
18340.00,        0.0
18480.00,        0.0
18620.00,        0.0
18760.00,        0.0
18900.00,        0.0
19040.00,        0.0
19180.00,        0.0
19320.00,        0.0
19460.00,        0.0
19600.00,        0.0
19740.00,        0.0
19880.00,        0.0
20020.00,        0.0
20160.00,        1.0
20300.00,        0.0
20440.00,        0.0
20580.00,        0.0
20720.00,        0.0
20860.00,        0.0
21000.00,        0.0
21140.00,        0.0
21280.00,        0.0
21420.00,        0.0
21560.00,        0.0
21700.00,        0.0
21840.00,        0.0
21980.00,        0.0
22120.00,        0.0
22260.00,        0.0
22400.00,        0.0
22540.00,        0.0
22680.00,        0.0
22820.00,        0.0
22960.00,        0.0
23100.00,        0.0
23240.00,        0.0
23380.00,        0.0
23520.00,        0.0
23660.00,        0.0
23800.00,        0.0
23940.00,        0.0
24080.00,        0.0
24220.00,        0.0
24360.00,        0.0
24500.00,        0.0
24640.00,        0.0
24780.00,        0.0
24920.00,        0.0
25060.00,        0.0
25200.00,        0.0
25340.00,        0.0
25480.00,        0.0
25620.00,        0.0
25760.00,        0.0
25900.00,        0.0
26040.00,        0.0
26180.00,        0.0
26320.00,        0.0
26460.00,        0.0
26600.00,        0.0
26740.00,        0.0
26880.00,        0.0
27020.00,        0.0
27160.00,        0.0
27300.00,        0.0
27440.00,        0.0
27580.00,        0.0
27720.00,        0.0
27860.00,        0.0
28000.00,        0.0
28140.00,        0.0
28280.00,        0.0
28420.00,        0.0
28560.00,        0.0
28700.00,        0.0
28840.00,        0.0
28980.00,        0.0
29120.00,        0.0
29260.00,        0.0
29400.00,        0.0
29540.00,        0.0
29680.00,        0.0
29820.00,        0.0
29960.00,        0.0
30100.00,        0.0
30240.00,        0.0
30380.00,        0.0
30520.00,        0.0
30660.00,        0.0
30800.00,        0.0
30940.00,        0.0
31080.00,        0.0
31220.00,        0.0
31360.00,        0.0
31500.00,        0.0
31640.00,        0.0
31780.00,        0.0
31920.00,        0.0
32060.00,        0.0
32200.00,        0.0
32340.00,        0.0
32480.00,        0.0
32620.00,        0.0
32760.00,        0.0
32900.00,        0.0
33040.00,        0.0
33180.00,        0.0
33320.00,        0.0
33460.00,        0.0
33600.00,        0.0
33740.00,        0.0
33880.00,        0.0
34020.00,        0.0
34160.00,        0.0
34300.00,        0.0
34440.00,        0.0
34580.00,        0.0
34720.00,        0.0
34860.00,        0.0
35000.00,        0.0
35140.00,        0.0
35280.00,        0.0
35420.00,        0.0
35560.00,        0.0
35700.00,        0.0
35840.00,        0.0
35980.00,        0.0
36120.00,        0.0
36260.00,        0.0
36400.00,        0.0
36540.00,        0.0
36680.00,        0.0
36820.00,        0.0
36960.00,        0.0
37100.00,        0.0
37240.00,        0.0
37380.00,        0.0
37520.00,        0.0
37660.00,        0.0
37800.00,        0.0
37940.00,        0.0
38080.00,        0.0
38220.00,        0.0
38360.00,        0.0
38500.00,        0.0
38640.00,        0.0
38780.00,        0.0
38920.00,        0.0
39060.00,        0.0
39200.00,        0.0
39340.00,        0.0
39480.00,        0.0
39620.00,        0.0
39760.00,        0.0
39900.00,        0.0
40040.00,        0.0
40180.00,        0.0
40320.00,        0.0
40460.00,        0.0
40600.00,        0.0
40740.00,        0.0
40880.00,        0.0
40950.00,        0.0
#ENDOFDATA   :