File: MATLAB/file1.msa
#FORMAT      : EMSA/MAS SPECTRAL DATA FILE
#VERSION     : 1.0
#TITLE       : Bruker AXS spectrum
#DATE        : 01-DEC-2022
#TIME        : 09:24
#OWNER       : Bruker AXS
#NPOINTS     : 4096.0
#NCOLUMNS    : 4.0
#XUNITS      : keV
#YUNITS      : Counts
#DATATYPE    : Y
#XPERCHAN    : 0.0050000
#OFFSET      : -0.4783000
#SIGNALTYPE  : EDS
#CHOFFSET    : 96
#BEAMKV   -kV: 15.0
#ELEVANGLE   : 35.0
#AZIMANGLE   : 45.0
#XTILTSTGE   : 0.0
#YTILTSTGE   : 0.0
#LIVETIME  -s: 25.917
#REALTIME  -s: 26.977
##RTDET      : XFlash 5030
#EDSDET      :
#TDEADLYR -cm: 0.000003
#TACTLYR  -cm: 0.045
##FANO       : 0.1068232
##MNFWHM -keV: 0.1328904
##IDENT      : O,Fe,Na,Al,Si,Ca,Mg,Ti,K,P,S
#SPECTRUM    :
         0.0,         0.0,         0.0,         0.0,
         0.0,         0.0,         0.0,         0.0,
         0.0,         0.0,         0.0,         0.0,
         0.0,         0.0,         0.0,         1.0,
      3098.0,      2988.0,      2736.0,      2517.0,
         0.0,         0.0,         0.0,         1.0,
        80.0,        89.0,        99.0,       111.0,
        44.0,        50.0,        38.0,        33.0,
      1258.0,      1429.0,      1726.0,      2047.0,
       137.0,       103.0,        78.0,        60.0,
        64.0,        59.0,        54.0,        51.0,
        69.0,        65.0,        84.0,        69.0,
       126.0,       132.0,       192.0,       171.0,
       607.0,       487.0,       441.0,       348.0,
        84.0,       101.0,        87.0,        81.0,
       100.0,       117.0,       100.0,       105.0,
       906.0,      1019.0,      1200.0,      1324.0,
       439.0,       366.0,       286.0,       248.0,
      1166.0,      1400.0,      1696.0,      1994.0,
      1371.0,      1139.0,       948.0,       812.0,
        92.0,        82.0,        62.0,        61.0,
        60.0,        66.0,        65.0,        58.0,
        87.0,        85.0,        93.0,        81.0,
        56.0,        50.0,        63.0,        60.0,
        58.0,        50.0,        53.0,        55.0,
        63.0,        58.0,        50.0,        47.0,
        57.0,        52.0,        48.0,        53.0,
        48.0,        64.0,        62.0,        66.0,
        70.0,        63.0,        68.0,        49.0,
        52.0,        53.0,        68.0,        59.0,
        49.0,        47.0,        57.0,        42.0,
        44.0,        40.0,        36.0,        47.0,
        47.0,        45.0,        47.0,        34.0,
        41.0,        42.0,        41.0,        41.0,
        71.0,        67.0,        83.0,        99.0,
       184.0,       180.0,       165.0,       146.0,
        37.0,        33.0,        40.0,        32.0,
        38.0,        47.0,        53.0,        47.0,
        39.0,        35.0,        29.0,        32.0,
        32.0,        35.0,        33.0,        20.0,
        27.0,        30.0,        38.0,        42.0,
        26.0,        26.0,        20.0,        25.0,
        30.0,        36.0,        34.0,        31.0,
        23.0,        22.0,        28.0,        28.0,
        23.0,        23.0,        22.0,        22.0,
        20.0,        25.0,        25.0,        20.0,
        21.0,        21.0,        22.0,        22.0,
        15.0,        25.0,        23.0,        19.0,
        23.0,        20.0,        21.0,        19.0,
        17.0,        21.0,        19.0,        19.0,
        19.0,        21.0,        20.0,        17.0,
        18.0,        18.0,        18.0,        14.0,
        15.0,        23.0,        24.0,        21.0,
        23.0,        19.0,        24.0,        22.0,
        23.0,        17.0,        15.0,        13.0,
        22.0,        13.0,        15.0,        20.0,
        15.0,        11.0,        13.0,        14.0,
        28.0,        16.0,        27.0,        27.0,
        26.0,        18.0,        26.0,        22.0,
        21.0,        15.0,        16.0,        14.0,
        15.0,        13.0,        11.0,        18.0,
         9.0,        10.0,        17.0,        13.0,
        19.0,        17.0,        17.0,        13.0,
         8.0,        13.0,        12.0,        13.0,
        12.0,         9.0,        12.0,        18.0,
        10.0,         8.0,        10.0,         8.0,
        12.0,        14.0,        14.0,        19.0,
        10.0,         6.0,        12.0,        14.0,
        13.0,        16.0,        15.0,        10.0,
        10.0,        13.0,         5.0,        13.0,
        12.0,         8.0,        10.0,         8.0,
        14.0,         6.0,         9.0,        13.0,
        12.0,        13.0,        10.0,         6.0,
        12.0,        12.0,        17.0,         8.0,
        11.0,         4.0,        11.0,        12.0,
         9.0,        11.0,        15.0,         9.0,
         6.0,        10.0,         6.0,         9.0,
        12.0,        10.0,        10.0,         3.0,
         9.0,         6.0,         4.0,         6.0,
         8.0,         6.0,        10.0,         7.0,
         7.0,         7.0,         6.0,         4.0,
         8.0,        13.0,         8.0,         9.0,
         4.0,         8.0,         7.0,         9.0,
         9.0,         6.0,         9.0,         6.0,
        11.0,         7.0,         5.0,         7.0,
         8.0,         9.0,         2.0,         9.0,
         5.0,        11.0,         6.0,        11.0,
         3.0,         8.0,         9.0,         4.0,
         8.0,         3.0,         8.0,         5.0,
         5.0,         7.0,         4.0,         5.0,
         4.0,         6.0,         7.0,         7.0,
         8.0,         5.0,         6.0,         4.0,
         3.0,         6.0,         3.0,         9.0,
         5.0,         3.0,         5.0,         4.0,
         3.0,         4.0,         3.0,         6.0,
         4.0,         2.0,         7.0,         6.0,
         2.0,         4.0,         4.0,         5.0,
         4.0,         4.0,         6.0,         4.0,
         2.0,         9.0,         5.0,         5.0,
         4.0,         7.0,         5.0,         5.0,
         7.0,         3.0,         5.0,         6.0,
         4.0,         5.0,         6.0,         4.0,
         4.0,         0.0,         3.0,         7.0,
         3.0,         4.0,         3.0,         3.0,
         5.0,         3.0,         6.0,         6.0,
         3.0,         3.0,         2.0,         3.0,
         7.0,         5.0,         3.0,         6.0,
         3.0,         2.0,         3.0,         3.0,
         2.0,         1.0,         2.0,         3.0,
         2.0,         1.0,         2.0,         2.0,
         5.0,         3.0,         1.0,         1.0,
         2.0,         0.0,         2.0,         0.0,
         1.0,         2.0,         2.0,         1.0,
         0.0,         4.0,         1.0,         3.0,
         0.0,         0.0,         2.0,         1.0,
         0.0,         1.0,         3.0,         2.0,
         0.0,         1.0,         1.0,         3.0,
         2.0,         2.0,         1.0,         0.0,
         0.0,         3.0,         2.0,         0.0,
         2.0,         3.0,         0.0,         2.0,
         2.0,         3.0,         3.0,         0.0,
         2.0,         0.0,         1.0,         0.0,
         1.0,         0.0,         1.0,         2.0,
         2.0,         1.0,         2.0,         2.0,
         0.0,         1.0,         0.0,         0.0,
         0.0,         0.0,         0.0,         1.0,
         0.0,         0.0,         0.0,         0.0,
         0.0,         0.0,         0.0,         0.0,
         0.0,         0.0,         1.0,         0.0,
         0.0,         0.0,         0.0,         0.0,
         0.0,         0.0,         0.0,         0.0,
         0.0,         0.0,         0.0,         0.0,
         0.0,         0.0,         0.0,         0.0,
         0.0,         0.0,         0.0,         0.0,
         0.0,         0.0,         0.0,         0.0,
         0.0,         0.0,         0.0,         0.0,
         0.0,         0.0,         0.0,         0.0,
         0.0,         0.0,         0.0,         0.0,
         0.0,         0.0,         0.0,         0.0,
         0.0,         0.0,         0.0,         0.0,
         0.0,         0.0,         0.0,         0.0,
         0.0,         0.0,         0.0,         0.0,
         0.0,         0.0,         0.0,         0.0,
         0.0,         0.0,         0.0,         0.0,
         0.0,         0.0,         0.0,         0.0,
         0.0,         0.0,         0.0,         0.0,
         0.0,         0.0,         0.0,         0.0,
         0.0,         0.0,         0.0,         0.0,
         0.0,         0.0,         0.0,         0.0,
         0.0,         0.0,         0.0,         0.0,
         0.0,         0.0,         0.0,         0.0,
         0.0,         0.0,         0.0,         0.0,
         0.0,         0.0,         0.0,         0.0,
         0.0,         0.0,         0.0,         0.0,
         0.0,         0.0,         0.0,         0.0,
         0.0,         0.0,         0.0,         0.0,
         0.0,         0.0,         0.0,         0.0,
         0.0,         0.0,         0.0,         0.0,
         0.0,         0.0,         0.0,         0.0,
         0.0,         0.0,         0.0,         0.0,
         0.0,         0.0,         0.0,         0.0,
         0.0,         0.0,         0.0,         0.0,
         0.0,         0.0,         0.0,         0.0,
         0.0,         0.0,         0.0,         0.0,
         0.0,         0.0,         0.0,         0.0,
         0.0,         0.0,         0.0,         0.0,
         0.0,         0.0,         0.0,         0.0,
         0.0,         0.0,         0.0,         0.0,
         0.0,         0.0,         0.0,         0.0,
         0.0,         0.0,         0.0,         0.0,
         0.0,         0.0,         0.0,         0.0,
         0.0,         0.0,         0.0,         0.0,
#ENDOFDATA   :